#isoforms=['chr17:45816186:45816265:-@chr17:45815912:45815950:-@chr17:45814875:45814965:-.A.dn_chr17:45816186:45816265:-@chr17:45815912:45815950:-@chr17:45814875:45814965:-.A.se_chr17:45816186:45816265:-@chr17:45815912:45815950:-@chr17:45814875:45814965:-.A.up','chr17:45816186:45816265:-@chr17:45815912:45815950:-@chr17:45814875:45814965:-.B.dn_chr17:45816186:45816265:-@chr17:45815912:45815950:-@chr17:45814875:45814965:-.B.up']	exon_lens=('chr17:45816186:45816265:-@chr17:45815912:45815950:-@chr17:45814875:45814965:-.A.dn',91),('chr17:45816186:45816265:-@chr17:45815912:45815950:-@chr17:45814875:45814965:-.A.se',39),('chr17:45816186:45816265:-@chr17:45815912:45815950:-@chr17:45814875:45814965:-.A.up',80),('chr17:45816186:45816265:-@chr17:45815912:45815950:-@chr17:45814875:45814965:-.B.dn',91),('chr17:45816186:45816265:-@chr17:45815912:45815950:-@chr17:45814875:45814965:-.B.up',80)	iters=2000	burn_in=200	lag=5	percent_accept=95.70	proposal_type=drift	counts=(0,1):11,(1,0):5,(1,1):17	assigned_counts=0:9,1:24
sampled_psi	log_score
0.2840,0.7160	-181.0213
0.2848,0.7152	-180.1046
0.2541,0.7459	-179.8902
0.2445,0.7555	-176.4748
0.2367,0.7633	-178.6790
0.1948,0.8052	-182.8838
0.1923,0.8077	-178.6361
0.1944,0.8056	-177.2054
0.1856,0.8144	-180.1525
0.2064,0.7936	-177.2515
0.2053,0.7947	-181.3057
0.2568,0.7432	-179.9017
0.2551,0.7449	-183.1087
0.2433,0.7567	-179.8579
0.2647,0.7353	-180.9660
0.2853,0.7147	-181.9457
0.2580,0.7420	-180.9639
0.2764,0.7236	-181.9533
0.2471,0.7529	-179.8665
0.2646,0.7354	-183.0106
0.2336,0.7664	-177.4735
0.2579,0.7421	-179.9069
0.2533,0.7467	-179.8869
0.2367,0.7633	-178.6794
0.2376,0.7624	-184.5143
0.2030,0.7970	-181.3377
0.1803,0.8197	-180.2267
0.1823,0.8177	-175.6950
0.1891,0.8109	-177.1964
0.2175,0.7825	-179.8838
0.2147,0.7853	-181.1928
0.1971,0.8029	-177.2125
0.1920,0.8080	-182.9488
0.1933,0.8067	-178.6316
0.1839,0.8161	-178.6850
0.1929,0.8071	-180.0651
0.2040,0.7960	-181.3232
0.2278,0.7722	-177.4134
0.1950,0.8050	-181.4609
0.2060,0.7940	-178.5984
0.2133,0.7867	-177.2929
0.2550,0.7450	-180.9659
0.2499,0.7501	-179.8747
0.2188,0.7812	-181.1519
0.2204,0.7796	-183.6627
0.1964,0.8036	-178.6195
0.2005,0.7995	-179.9904
0.1900,0.8100	-181.5471
0.1979,0.8021	-181.4130
0.2024,0.7976	-184.0901
0.2020,0.7980	-177.2303
0.2263,0.7737	-181.0866
0.2448,0.7552	-180.9873
0.2363,0.7637	-178.6767
0.2473,0.7527	-180.9801
0.2339,0.7661	-179.8497
0.2254,0.7746	-183.5621
0.2292,0.7708	-182.2786
0.2625,0.7375	-181.9973
0.2373,0.7627	-179.8504
0.2374,0.7626	-183.3514
0.2628,0.7372	-180.9645
0.2752,0.7248	-178.0820
0.2856,0.7144	-178.2791
0.2833,0.7167	-181.9460
0.2551,0.7449	-178.8230
0.2593,0.7407	-177.8152
0.2597,0.7403	-183.0588
0.2435,0.7565	-179.8582
0.2305,0.7695	-182.2622
0.2352,0.7648	-177.4916
0.2405,0.7595	-184.4527
0.2349,0.7651	-178.6686
0.2696,0.7304	-179.9762
0.2477,0.7523	-177.6465
0.2678,0.7322	-180.9700
0.2485,0.7515	-182.0838
0.2655,0.7345	-177.9147
0.2122,0.7878	-182.5328
0.2394,0.7606	-179.8521
0.2625,0.7375	-179.9314
0.2768,0.7232	-180.9924
0.2610,0.7390	-180.9637
0.2337,0.7663	-177.4752
0.2121,0.7879	-179.9095
0.2067,0.7933	-181.2875
0.2189,0.7811	-177.3343
0.2321,0.7679	-179.8504
0.2504,0.7496	-180.9728
0.2447,0.7553	-179.8606
0.2127,0.7873	-177.2889
0.2143,0.7857	-182.4973
0.2137,0.7863	-177.2953
0.2465,0.7535	-179.8649
0.2371,0.7629	-181.0188
0.2416,0.7584	-177.5673
0.2149,0.7851	-182.4858
0.1985,0.8015	-184.1946
0.1980,0.8020	-180.0130
0.1743,0.8257	-177.2118
0.1693,0.8307	-177.2313
0.1616,0.8384	-182.2176
0.1815,0.8185	-180.2087
0.2192,0.7808	-178.6069
0.1867,0.8133	-178.6664
0.1852,0.8148	-181.6382
0.1864,0.8136	-178.6685
0.2156,0.7844	-182.4750
0.2065,0.7935	-174.5593
0.2014,0.7986	-177.2281
0.2308,0.7692	-182.2596
0.1979,0.8021	-178.6146
0.2045,0.7955	-179.9587
0.1774,0.8226	-180.2714
0.1795,0.8205	-175.6798
0.1707,0.8293	-178.8061
0.1741,0.8259	-180.3261
0.1772,0.8228	-177.2038
0.1654,0.8346	-180.4886
0.1769,0.8231	-178.7421
0.1785,0.8215	-174.1480
0.1813,0.8187	-178.7041
0.1824,0.8176	-177.1957
0.1657,0.8343	-177.2506
0.1638,0.8362	-177.2624
0.1806,0.8194	-177.1977
0.1539,0.8461	-177.3436
0.1652,0.8348	-174.0135
0.1638,0.8362	-182.1526
0.1594,0.8406	-177.2944
0.1494,0.8506	-179.1312
0.1679,0.8321	-178.8387
0.1837,0.8163	-178.6864
0.1806,0.8194	-177.1976
0.1813,0.8187	-177.1969
0.1818,0.8182	-181.7098
0.1852,0.8148	-177.1945
0.1980,0.8020	-177.2155
0.2073,0.7927	-177.2560
0.2201,0.7799	-181.1391
0.1951,0.8049	-178.6241
0.1896,0.8104	-181.5543
0.1994,0.8006	-177.2201
0.2012,0.7988	-179.9844
0.2174,0.7826	-185.0083
0.2445,0.7555	-180.9883
0.2106,0.7894	-179.9178
0.2107,0.7893	-178.5967
0.1908,0.8092	-180.0878
0.2097,0.7903	-178.5966
0.2242,0.7758	-179.8623
0.2234,0.7766	-182.3567
0.2123,0.7877	-179.9082
0.2227,0.7773	-181.1165
0.2418,0.7582	-177.5691
0.2238,0.7762	-179.8631
0.1899,0.8101	-177.1973
0.1729,0.8271	-183.4784
0.1772,0.8228	-180.2751
0.1776,0.8224	-177.2029
0.1928,0.8072	-175.7699
0.1996,0.8004	-178.6097
0.2075,0.7925	-177.2574
0.2310,0.7690	-178.6483
0.2135,0.7865	-179.9023
0.2066,0.7934	-175.9068
0.2179,0.7821	-181.1604
0.2085,0.7915	-178.5968
0.1975,0.8025	-178.6157
0.1928,0.8072	-180.0653
0.1978,0.8022	-178.6148
0.1827,0.8173	-180.1925
0.1870,0.8130	-183.0737
0.1721,0.8279	-180.3615
0.1824,0.8176	-174.1957
0.1904,0.8096	-178.6452
0.1569,0.8431	-175.6340
0.1595,0.8405	-175.6315
0.1648,0.8352	-177.2557
0.1813,0.8187	-180.2124
0.1933,0.8067	-182.9181
0.1958,0.8042	-178.6217
0.2047,0.7953	-177.2428
0.2315,0.7685	-179.8508
0.2778,0.7222	-180.0403
0.2958,0.7042	-178.4868
0.2984,0.7016	-184.5261
0.2817,0.7183	-182.8828
0.2581,0.7419	-182.0196
0.2799,0.7201	-181.0033
0.3025,0.6975	-183.6443
0.2936,0.7064	-177.5625
0.2705,0.7295	-179.9829
0.3000,0.7000	-180.2718
0.2833,0.7167	-183.8026
0.2469,0.7531	-182.0963
0.2705,0.7295	-178.9910
0.2905,0.7095	-181.0553
0.2883,0.7117	-179.2360
0.2987,0.7013	-180.2556
0.2857,0.7143	-180.1125
0.2905,0.7095	-182.8411
0.2602,0.7398	-183.0537
0.2797,0.7203	-179.1108
0.2751,0.7249	-180.0182
0.2611,0.7389	-180.9637
0.2681,0.7319	-181.9746
0.2441,0.7559	-180.9896
0.2745,0.7255	-180.0136
0.2582,0.7418	-179.9086
0.2673,0.7327	-177.9441
0.2415,0.7585	-180.9992
0.2353,0.7647	-181.0281
0.2268,0.7732	-179.8568
0.2164,0.7836	-178.6017
0.1883,0.8117	-177.1957
0.1906,0.8094	-178.6442
0.1659,0.8341	-178.8642
0.1834,0.8166	-175.7016
0.1824,0.8176	-184.6982
0.1686,0.8314	-177.2348
0.1698,0.8302	-175.6421
0.1883,0.8117	-177.1957
0.2285,0.7715	-182.2875
0.2339,0.7661	-178.6631
0.2313,0.7687	-182.2527
0.2402,0.7598	-177.5501
0.2150,0.7850	-177.3046
0.2106,0.7894	-179.9181
0.1932,0.8068	-177.2027
0.1987,0.8013	-182.7950
0.2064,0.7936	-179.9450
0.1921,0.8079	-180.0731
0.1748,0.8252	-180.3140
0.1964,0.8036	-174.3925
0.1664,0.8336	-177.2467
0.2031,0.7969	-181.3357
0.2404,0.7596	-177.5523
0.2565,0.7435	-182.0288
0.2881,0.7119	-180.1371
0.2967,0.7033	-181.0950
0.2737,0.7263	-180.9827
0.2499,0.7501	-180.9739
0.2423,0.7577	-176.4358
0.2801,0.7199	-178.1715
0.2946,0.7054	-179.3346
0.3199,0.6801	-179.7924
0.3182,0.6818	-185.0919
0.3183,0.6817	-179.7603
0.3085,0.6915	-180.3817
0.3172,0.6828	-182.0384
0.3299,0.6701	-184.9587
0.3438,0.6562	-180.9546
0.3507,0.6493	-184.7837
0.3446,0.6554	-183.5412
0.3480,0.6520	-183.5462
0.3463,0.6537	-181.6369
0.3606,0.6394	-180.7187
0.3978,0.6022	-183.0004
0.3645,0.6355	-181.9296
0.3579,0.6421	-182.4031
0.3107,0.6893	-182.0050
0.3176,0.6824	-180.5111
0.3249,0.6751	-182.0869
0.3110,0.6890	-181.2113
0.3091,0.6909	-183.6067
0.2705,0.7295	-181.9671
0.2254,0.7746	-177.3902
0.2551,0.7449	-180.9658
0.2507,0.7493	-182.0669
0.2433,0.7567	-179.8578
0.2498,0.7502	-184.2729
0.2427,0.7573	-180.9947
0.2202,0.7798	-179.8739
0.2161,0.7839	-179.8897
0.2019,0.7981	-181.3538
0.1883,0.8117	-180.1180
0.1859,0.8141	-178.6712
0.2094,0.7906	-177.2678
0.2014,0.7986	-182.7385
0.1956,0.8044	-177.2084
0.1964,0.8036	-180.0288
0.1893,0.8107	-180.1052
0.2091,0.7909	-181.2574
0.2280,0.7720	-179.8547
0.2461,0.7539	-182.1026
0.2925,0.7075	-182.8338
0.3199,0.6801	-179.0366
0.3160,0.6840	-179.7142
0.3074,0.6926	-180.3660
0.3058,0.6942	-179.5248
0.3315,0.6685	-182.8382
0.3522,0.6478	-185.3835
0.3964,0.6036	-184.6570
0.4071,0.5929	-183.5463
0.4644,0.5356	-184.7706
0.4593,0.5407	-183.5322
0.4547,0.5453	-184.7769
0.4636,0.5364	-185.1925
0.4568,0.5432	-184.9779
0.4344,0.5656	-184.0048
0.3986,0.6014	-183.4258
0.3930,0.6070	-183.3510
0.4223,0.5777	-183.4771
0.4293,0.5707	-183.6265
0.4110,0.5890	-184.3256
0.4313,0.5687	-184.7782
0.4161,0.5839	-184.0259
0.3859,0.6141	-183.2632
0.3722,0.6278	-183.6361
0.3930,0.6070	-181.6109
0.3599,0.6401	-184.1547
0.3292,0.6708	-179.9835
0.3414,0.6586	-181.5669
0.3356,0.6644	-183.5369
0.3191,0.6809	-181.2920
0.3104,0.6896	-178.8100
0.3000,0.7000	-181.9658
0.3185,0.6815	-180.5250
0.3301,0.6699	-181.4183
0.3965,0.6035	-183.3963
0.4193,0.5807	-182.7614
0.4005,0.5995	-182.2406
0.3720,0.6280	-184.6822
0.3470,0.6530	-183.5445
0.2962,0.7038	-181.9569
0.2759,0.7241	-179.0602
0.2419,0.7581	-177.5704
0.2236,0.7764	-179.8636
0.2223,0.7777	-182.3725
0.2156,0.7844	-178.6005
0.2257,0.7743	-182.3240
0.2169,0.7831	-179.8862
0.2361,0.7639	-177.5013
0.2294,0.7706	-176.2179
0.2115,0.7885	-175.9647
0.2149,0.7851	-176.0078
0.2452,0.7548	-178.7375
0.2381,0.7619	-178.6877
0.2583,0.7417	-180.9638
0.2384,0.7616	-177.5284
0.2464,0.7536	-180.9827
0.2481,0.7519	-180.9778
0.2283,0.7717	-178.6362
0.2235,0.7765	-177.3734
0.2323,0.7677	-181.0454
0.2150,0.7850	-178.5998
0.1944,0.8056	-184.3141
0.2131,0.7869	-175.9849
0.2795,0.7205	-179.1083
0.2704,0.7296	-180.9747
0.3160,0.6840	-181.2599
0.2974,0.7026	-181.0998
0.3028,0.6972	-181.1400
0.3378,0.6622	-183.5367
0.3051,0.6949	-182.8051
0.3062,0.6938	-180.3499
0.2799,0.7201	-181.0036
0.3002,0.6998	-181.9664
0.2909,0.7091	-183.7310
