#isoforms=['chr17:45816186:45816265:-@chr17:45815912:45815950:-@chr17:45814875:45814965:-.A.dn_chr17:45816186:45816265:-@chr17:45815912:45815950:-@chr17:45814875:45814965:-.A.se_chr17:45816186:45816265:-@chr17:45815912:45815950:-@chr17:45814875:45814965:-.A.up','chr17:45816186:45816265:-@chr17:45815912:45815950:-@chr17:45814875:45814965:-.B.dn_chr17:45816186:45816265:-@chr17:45815912:45815950:-@chr17:45814875:45814965:-.B.up']	exon_lens=('chr17:45816186:45816265:-@chr17:45815912:45815950:-@chr17:45814875:45814965:-.A.dn',91),('chr17:45816186:45816265:-@chr17:45815912:45815950:-@chr17:45814875:45814965:-.A.se',39),('chr17:45816186:45816265:-@chr17:45815912:45815950:-@chr17:45814875:45814965:-.A.up',80),('chr17:45816186:45816265:-@chr17:45815912:45815950:-@chr17:45814875:45814965:-.B.dn',91),('chr17:45816186:45816265:-@chr17:45815912:45815950:-@chr17:45814875:45814965:-.B.up',80)	iters=2000	burn_in=200	lag=5	percent_accept=95.80	proposal_type=drift	counts=(0,1):12,(1,0):7,(1,1):16	assigned_counts=0:8,1:27
sampled_psi	log_score
0.2560,0.7440	-196.5304
0.2556,0.7444	-194.4031
0.2549,0.7451	-195.4852
0.2450,0.7550	-187.8054
0.2328,0.7672	-193.5837
0.2505,0.7495	-187.8985
0.2227,0.7773	-192.4894
0.2610,0.7390	-193.2935
0.2605,0.7395	-192.2536
0.2746,0.7254	-192.2508
0.3141,0.6859	-194.7952
0.3065,0.6935	-193.2075
0.2972,0.7028	-192.3302
0.3086,0.6914	-194.0203
0.2915,0.7085	-193.1891
0.2884,0.7116	-191.3844
0.2583,0.7417	-191.2031
0.2654,0.7346	-190.2121
0.2996,0.7004	-189.7964
0.2685,0.7315	-194.2515
0.2583,0.7417	-193.3127
0.2747,0.7253	-195.1632
0.2208,0.7792	-191.2499
0.2364,0.7636	-193.5354
0.2151,0.7849	-193.8764
0.2201,0.7799	-189.9889
0.2190,0.7810	-187.4468
0.2388,0.7612	-194.6632
0.2371,0.7629	-192.3572
0.2432,0.7568	-194.5886
0.2410,0.7590	-191.1836
0.2870,0.7130	-192.2820
0.3087,0.6913	-192.4074
0.2811,0.7189	-190.3852
0.2775,0.7225	-193.2122
0.3057,0.6943	-191.5645
0.3151,0.6849	-192.4608
0.2883,0.7117	-194.0945
0.2643,0.7357	-190.2017
0.2655,0.7345	-193.2652
0.2746,0.7254	-193.2221
0.2662,0.7338	-196.3030
0.2701,0.7299	-192.2471
0.2630,0.7370	-192.2501
0.2587,0.7413	-192.2572
0.2873,0.7127	-192.2832
0.3075,0.6925	-192.3988
0.2959,0.7041	-193.1900
0.3107,0.6893	-195.6109
0.3397,0.6603	-192.0660
0.3238,0.6762	-192.5444
0.2867,0.7133	-192.2810
0.2917,0.7083	-193.1891
0.2912,0.7088	-192.2998
0.2853,0.7147	-190.4393
0.2776,0.7224	-197.0386
0.2600,0.7400	-197.4836
0.3028,0.6972	-194.8667
0.2599,0.7401	-194.3471
0.2847,0.7153	-194.1168
0.2734,0.7266	-190.2942
0.2797,0.7203	-195.0980
0.2883,0.7117	-195.9019
0.3124,0.6876	-194.0155
0.2815,0.7185	-194.1389
0.3228,0.6772	-194.7573
0.3322,0.6678	-193.3361
0.3513,0.6487	-194.1179
0.3330,0.6670	-193.3414
0.3156,0.6844	-191.6911
0.2995,0.7005	-195.7429
0.2969,0.7031	-193.1907
0.2906,0.7094	-194.0821
0.3034,0.6966	-194.0316
0.3057,0.6943	-192.3855
0.3142,0.6858	-195.5755
0.2613,0.7387	-192.2523
0.2592,0.7408	-192.2561
0.2362,0.7638	-193.5369
0.2457,0.7543	-192.3042
0.2634,0.7366	-194.3062
0.2448,0.7552	-192.3089
0.2500,0.7500	-190.0869
0.2342,0.7658	-191.1945
0.2625,0.7375	-192.2506
0.2531,0.7469	-192.2726
0.2155,0.7845	-191.2843
0.2044,0.7956	-195.4601
0.2181,0.7819	-193.8209
0.2249,0.7751	-192.4650
0.2399,0.7601	-190.0315
0.2897,0.7103	-193.1899
0.3083,0.6917	-197.2536
0.3004,0.6996	-192.3494
0.2722,0.7278	-191.2648
0.2768,0.7232	-192.2541
0.2828,0.7172	-190.4064
0.2861,0.7139	-195.0219
0.2966,0.7034	-193.1905
0.2672,0.7328	-192.2470
0.3044,0.6956	-194.8554
0.2991,0.7009	-194.8962
0.2749,0.7251	-190.3110
0.2924,0.7076	-190.5371
0.2743,0.7257	-191.2777
0.2736,0.7264	-192.2496
0.2714,0.7286	-190.2732
0.2516,0.7484	-195.5476
0.2424,0.7576	-193.4623
0.2614,0.7386	-193.2908
0.2663,0.7337	-193.2610
0.2719,0.7281	-194.2184
0.2782,0.7218	-194.1637
0.3092,0.6908	-194.0193
0.3229,0.6771	-193.2760
0.3167,0.6833	-190.9373
0.3209,0.6791	-191.7653
0.3071,0.6929	-194.0230
0.2916,0.7084	-195.8517
0.3225,0.6775	-192.5310
0.3523,0.6477	-194.1242
0.3703,0.6297	-195.3236
0.3629,0.6371	-194.1990
0.3220,0.6780	-195.5046
0.3114,0.6886	-192.4295
0.2806,0.7194	-193.2037
0.2633,0.7367	-191.2209
0.2910,0.7090	-191.4081
0.3045,0.6955	-193.2028
0.3394,0.6606	-194.7243
0.2962,0.7038	-194.0555
0.3482,0.6518	-193.4729
0.3337,0.6663	-194.7299
0.3277,0.6723	-192.5858
0.3675,0.6325	-193.1511
0.3323,0.6677	-194.0345
0.3345,0.6655	-194.0408
0.3320,0.6680	-194.7328
0.3561,0.6439	-194.1488
0.3682,0.6318	-194.7831
0.3638,0.6362	-194.7651
0.3810,0.6190	-194.3682
0.3869,0.6131	-194.8951
0.3916,0.6084	-196.6938
0.3830,0.6170	-194.8667
0.3456,0.6544	-193.4475
0.3565,0.6435	-192.9706
0.3581,0.6419	-192.4111
0.3693,0.6307	-193.7174
0.3437,0.6563	-191.4888
0.3521,0.6479	-193.5129
0.3241,0.6759	-196.2231
0.3373,0.6627	-192.6991
0.3212,0.6788	-192.5183
0.2490,0.7510	-192.2883
0.2524,0.7476	-192.2751
0.2322,0.7678	-190.0040
0.2341,0.7659	-190.0096
0.2508,0.7492	-190.0920
0.2829,0.7171	-191.3381
0.2876,0.7124	-190.4697
0.2367,0.7633	-190.0183
0.2264,0.7736	-188.7638
0.2189,0.7811	-193.8064
0.2411,0.7589	-192.3305
0.2871,0.7129	-192.2824
0.2312,0.7688	-190.0014
0.2077,0.7923	-190.0113
0.2166,0.7834	-191.2767
0.2374,0.7626	-191.1881
0.2397,0.7603	-192.3394
0.2663,0.7337	-193.2608
0.2278,0.7722	-188.7740
0.2328,0.7672	-194.7757
0.2471,0.7529	-191.1829
0.2537,0.7463	-194.4286
0.2657,0.7343	-192.2477
0.2785,0.7215	-191.3054
0.2749,0.7251	-195.1603
0.2704,0.7296	-191.2548
0.2893,0.7107	-189.5958
0.2566,0.7434	-191.1984
0.2814,0.7186	-191.3264
0.2781,0.7219	-193.2105
0.2947,0.7053	-193.1894
0.2453,0.7547	-190.0585
0.1961,0.8039	-192.8922
0.2298,0.7702	-192.4177
0.2013,0.7987	-191.4170
0.2182,0.7818	-191.2660
0.2139,0.7861	-191.2968
0.2184,0.7816	-191.2647
0.2396,0.7604	-192.3396
0.2499,0.7501	-188.9868
0.2798,0.7202	-192.2603
0.2367,0.7633	-193.5316
0.2367,0.7633	-192.3602
0.2317,0.7683	-190.0028
0.2151,0.7849	-189.9932
0.2246,0.7754	-191.2296
0.2354,0.7646	-192.3700
0.2302,0.7698	-189.9991
0.2624,0.7376	-195.3506
0.2661,0.7339	-190.2181
0.2921,0.7079	-196.7306
0.2552,0.7448	-192.2659
0.2940,0.7060	-192.3130
0.3484,0.6516	-194.1012
0.3312,0.6688	-192.6255
0.2989,0.7011	-193.1928
0.2979,0.7021	-193.1917
0.3044,0.6956	-189.8969
0.3078,0.6922	-194.8321
0.2969,0.7031	-192.3285
0.2686,0.7314	-197.2550
0.2360,0.7640	-193.5399
0.1952,0.8048	-188.6599
0.2179,0.7821	-192.5462
0.2143,0.7857	-193.8929
0.2099,0.7901	-188.6788
0.2246,0.7754	-192.4682
0.2079,0.7921	-192.6865
0.1768,0.8232	-188.7220
0.1984,0.8016	-194.2438
0.2119,0.7881	-189.9991
0.2414,0.7586	-190.0384
0.2734,0.7266	-193.2269
0.2696,0.7304	-197.2308
0.2549,0.7451	-191.1941
0.2683,0.7317	-193.2501
0.2921,0.7079	-195.8453
0.3371,0.6629	-194.0497
0.3313,0.6687	-191.9249
0.3086,0.6914	-195.6337
0.3147,0.6853	-190.9015
0.2907,0.7093	-192.2974
0.2694,0.7306	-196.2370
0.2737,0.7263	-195.1777
0.2438,0.7562	-193.4462
0.2691,0.7309	-193.2460
0.2615,0.7385	-192.2521
0.2397,0.7603	-195.8011
0.2451,0.7549	-193.4323
0.2425,0.7575	-194.5998
0.2279,0.7721	-194.8757
0.1999,0.8001	-192.8202
0.2115,0.7885	-193.9472
0.2057,0.7943	-192.7205
0.2038,0.7962	-192.7522
0.1944,0.8056	-188.6605
0.1881,0.8119	-188.6719
0.1870,0.8130	-196.0243
0.1987,0.8013	-187.2646
0.1814,0.8186	-193.2186
0.1547,0.8453	-194.0396
0.1669,0.8331	-190.4072
0.1530,0.8470	-187.2592
0.1655,0.8345	-192.0490
0.1707,0.8293	-191.9268
0.1910,0.8090	-190.1087
0.2028,0.7972	-191.4007
0.1944,0.8056	-195.7693
0.1967,0.8033	-187.2519
0.2086,0.7914	-188.6748
0.2077,0.7923	-191.3499
0.1886,0.8114	-190.1293
0.1756,0.8244	-191.8218
0.1739,0.8261	-187.1831
0.1209,0.8791	-193.6694
0.1292,0.8708	-189.4604
0.1519,0.8481	-192.4280
0.1335,0.8665	-193.0903
0.1542,0.8458	-188.9525
0.1326,0.8674	-189.3723
0.1164,0.8836	-191.8818
0.1180,0.8820	-189.7974
0.1360,0.8640	-192.9901
0.1231,0.8769	-189.6351
0.1245,0.8755	-191.5442
0.1279,0.8721	-189.4958
0.1197,0.8803	-187.7473
0.1304,0.8696	-191.3255
0.1214,0.8786	-189.6880
0.1373,0.8627	-192.9401
0.1262,0.8738	-191.4789
0.1181,0.8819	-191.8047
0.1304,0.8696	-189.4307
0.1538,0.8462	-188.9585
0.1411,0.8589	-192.7918
0.1433,0.8567	-192.7150
0.1644,0.8356	-192.0780
0.1536,0.8464	-194.0803
0.1600,0.8400	-192.1929
0.1571,0.8429	-192.2723
0.1361,0.8639	-189.2889
0.1155,0.8845	-193.9543
0.1205,0.8795	-195.6778
0.1207,0.8793	-193.6800
0.1314,0.8686	-187.5150
0.1268,0.8732	-189.5268
0.1282,0.8718	-193.3211
0.1255,0.8745	-189.5654
0.1166,0.8834	-189.8480
0.0988,0.9012	-195.0085
0.1099,0.8901	-190.0941
0.1151,0.8849	-189.8996
0.1086,0.8914	-192.2535
0.1128,0.8872	-194.1100
0.1091,0.8909	-194.3267
0.0966,0.9034	-192.9347
0.0966,0.9034	-197.4070
0.0975,0.9025	-192.8758
0.1076,0.8924	-190.1888
0.1149,0.8851	-193.9929
0.1468,0.8532	-189.0722
0.1459,0.8541	-192.6242
0.1286,0.8714	-193.3058
0.1566,0.8434	-188.9199
0.1762,0.8238	-194.8965
0.1873,0.8127	-194.5440
0.1979,0.8021	-190.0585
0.2353,0.7647	-192.3710
0.2562,0.7438	-193.3292
0.2312,0.7688	-197.2110
0.2344,0.7656	-194.7453
0.2234,0.7766	-193.7275
0.2503,0.7497	-190.0890
0.2927,0.7073	-192.3065
0.2929,0.7071	-193.1890
0.3017,0.6983	-190.6787
0.2946,0.7054	-194.9356
0.2969,0.7031	-193.1907
0.2775,0.7225	-195.1261
0.2742,0.7258	-194.1968
0.3256,0.6744	-191.8357
0.3100,0.6900	-192.4182
0.3074,0.6926	-192.3978
0.2821,0.7179	-191.3318
0.2510,0.7490	-195.5594
0.2497,0.7503	-192.2853
0.2200,0.7800	-188.7232
0.2284,0.7716	-194.8646
0.2398,0.7602	-192.3387
0.2308,0.7692	-192.4081
0.2430,0.7570	-195.7287
0.2541,0.7459	-194.4225
0.2395,0.7605	-188.8739
0.2432,0.7568	-193.4531
0.2502,0.7498	-192.2831
0.2652,0.7348	-193.2672
0.2838,0.7162	-195.0478
0.2482,0.7518	-191.1837
0.2348,0.7652	-191.1932
0.2596,0.7404	-191.2071
0.2701,0.7299	-192.2471
0.2986,0.7014	-194.9006
0.2984,0.7016	-191.4821
0.2640,0.7360	-191.2235
0.2814,0.7186	-192.2642
0.2754,0.7246	-190.3174
